%  1    time 0.000 sec
%  2  3 Motor voltage [V] left, right: 2.0 2.0
%  4  5 Motor current left, right [A]: 0.006 -0.013
%  6  7 Wheel velocity [r/s] left, right: 0.0000 0.0000
%  8    Battery voltage [V]: 12.17
0.001 2.0 2.0 0.101 0.082 0.0000 0.0000 12.12 
0.002 2.0 2.0 0.285 0.234 0.0000 0.0000 12.12 
0.003 2.0 2.0 0.355 0.336 0.0000 0.0000 12.12 
0.004 2.0 2.0 0.405 0.399 0.0000 0.0000 12.12 
0.005 2.0 2.0 0.412 0.399 0.0000 0.0000 12.12 
0.006 2.0 2.0 0.424 0.393 0.0000 0.0000 12.09 
0.007 2.0 2.0 0.443 0.367 0.0000 0.0000 12.09 
0.008 2.0 2.0 0.399 0.361 0.0000 0.0000 12.09 
0.009 2.0 2.0 0.437 0.361 0.0000 2.2881 12.09 
0.010 2.0 2.0 0.462 0.348 0.0000 2.2881 12.09 
0.011 2.0 2.0 0.469 0.336 0.0000 2.2881 12.04 
0.012 2.0 2.0 0.443 0.348 0.0000 2.2881 12.04 
0.013 2.0 2.0 0.424 0.304 2.7824 4.1354 12.04 
0.014 2.0 2.0 0.393 0.317 2.7824 4.1354 12.04 
0.015 2.0 2.0 0.355 0.291 2.7824 5.0458 12.04 
0.016 2.0 2.0 0.298 0.279 2.7824 5.0458 12.12 
0.017 2.0 2.0 0.247 0.317 3.4409 5.0458 12.12 
0.018 2.0 2.0 0.228 0.260 3.4409 5.6345 12.12 
0.019 2.0 2.0 0.234 0.266 3.4409 5.6345 12.12 
0.020 2.0 2.0 0.260 0.279 4.3342 5.8287 12.12 
0.021 2.0 2.0 0.317 0.260 4.3342 5.8287 12.12 
0.022 2.0 2.0 0.348 0.266 4.3342 6.1467 12.12 
0.023 2.0 2.0 0.348 0.279 4.6311 6.1467 12.12 
0.024 2.0 2.0 0.386 0.253 4.6311 6.6614 12.12 
0.025 2.0 2.0 0.329 0.247 5.7058 6.6614 12.12 
0.026 2.0 2.0 0.374 0.253 5.7058 7.1172 12.10 
0.027 2.0 2.0 0.329 0.247 6.1467 7.1172 12.10 
0.028 2.0 2.0 0.355 0.234 6.1467 7.3895 12.10 
0.029 2.0 2.0 0.323 0.247 7.0066 7.3895 12.10 
0.030 2.0 2.0 0.355 0.241 7.0066 7.5970 12.10 
0.031 2.0 2.0 0.342 0.228 7.3493 7.5970 12.09 
0.032 2.0 2.0 0.310 0.247 7.3493 7.3096 12.09 
0.033 2.0 2.0 0.285 0.260 7.8166 8.7810 12.09 
0.034 2.0 2.0 0.285 0.215 7.8166 8.7810 12.09 
0.035 2.0 2.0 0.285 0.241 7.2314 9.5906 12.09 
0.036 2.0 2.0 0.279 0.196 8.2961 8.7243 12.09 
0.037 2.0 2.0 0.272 0.215 8.2961 8.7243 12.09 
0.038 2.0 2.0 0.272 0.222 8.4517 8.4517 12.09 
0.039 2.0 2.0 0.266 0.209 8.4517 9.3260 12.09 
0.040 2.0 2.0 0.260 0.222 8.7243 9.3260 12.09 
0.041 2.0 2.0 0.285 0.209 8.8384 9.1370 12.12 
0.042 2.0 2.0 0.272 0.228 8.8384 9.3908 12.12 
0.043 2.0 2.0 0.272 0.158 9.4564 9.3908 12.12 
0.044 2.0 2.0 0.260 0.209 9.3260 9.8706 12.12 
0.045 2.0 2.0 0.260 0.177 9.7991 10.2445 12.12 
0.046 2.0 2.0 0.253 0.146 9.7991 9.8706 12.10 
0.047 2.0 2.0 0.203 0.146 8.9554 9.8706 12.10 
0.048 2.0 2.0 0.171 0.127 10.0916 10.0168 12.10 
0.049 2.0 2.0 0.171 0.158 10.0916 9.9432 12.10 
0.050 2.0 2.0 0.184 0.171 10.2445 10.4827 12.10 
0.051 2.0 2.0 0.222 0.165 10.2445 10.4827 12.09 
0.052 2.0 2.0 0.234 0.171 8.7810 9.9432 12.09 
0.053 2.0 2.0 0.241 0.184 8.7810 10.4021 12.09 
0.054 2.0 2.0 0.253 0.184 10.8182 10.5646 12.09 
0.055 2.0 2.0 0.266 0.196 11.8620 11.0842 12.09 
0.056 2.0 2.0 0.247 0.127 11.0842 11.0842 12.07 
0.057 2.0 2.0 0.228 0.177 9.7286 10.0916 12.07 
0.058 2.0 2.0 0.234 0.165 9.7286 10.9054 12.07 
0.059 2.0 2.0 0.241 0.165 11.0842 11.0842 12.07 
0.060 2.0 2.0 0.253 0.152 10.7323 11.3636 12.07 
0.061 2.0 2.0 0.234 0.158 11.2689 11.3636 12.13 
0.062 2.0 2.0 0.234 0.171 10.9941 10.8182 12.13 
0.063 2.0 2.0 0.228 0.158 11.8620 10.9941 12.13 
0.064 2.0 2.0 0.215 0.146 11.8620 11.5579 12.13 
0.065 2.0 2.0 0.215 0.152 11.1758 11.5579 12.13 
0.066 2.0 2.0 0.190 0.152 11.9670 10.9941 12.10 
0.067 2.0 2.0 0.171 0.139 10.9941 10.9941 12.10 
0.068 2.0 2.0 0.114 0.152 11.9670 11.1758 12.10 
0.069 2.0 2.0 0.127 0.139 11.2689 10.9941 12.10 
0.070 2.0 2.0 0.146 0.108 11.2689 11.7589 12.10 
0.071 2.0 2.0 0.184 0.108 11.9670 10.9941 12.12 
0.072 2.0 2.0 0.222 0.127 11.2689 11.4599 12.12 
0.073 2.0 2.0 0.215 0.152 12.2934 11.4599 12.12 
0.074 2.0 2.0 0.184 0.139 11.2689 11.5579 12.12 
0.075 2.0 2.0 0.222 0.146 12.5210 12.1826 12.12 
0.076 2.0 2.0 0.196 0.133 11.8620 12.1826 12.13 
0.077 2.0 2.0 0.184 0.114 12.6380 11.7589 12.13 
0.078 2.0 2.0 0.177 0.108 11.9670 11.2689 12.13 
0.079 2.0 2.0 0.190 0.108 11.9670 12.2934 12.13 
0.080 2.0 2.0 0.165 0.158 12.5210 12.0738 12.13 
0.081 2.0 2.0 0.190 0.146 12.6380 12.0738 12.12 
0.082 2.0 2.0 0.196 0.139 13.0026 11.9670 12.12 
0.083 2.0 2.0 0.196 0.133 12.4061 12.6380 12.12 
0.084 2.0 2.0 0.177 0.133 12.8788 12.6380 12.12 
0.085 2.0 2.0 0.139 0.120 11.9670 12.1826 12.12 
0.086 2.0 2.0 0.120 0.120 12.8788 12.1826 12.10 
0.087 2.0 2.0 0.158 0.139 11.8620 12.2934 12.10 
0.088 2.0 2.0 0.177 0.152 12.6380 12.7573 12.10 
0.089 2.0 2.0 0.196 0.152 12.2934 12.4061 12.10 
0.090 2.0 2.0 0.196 0.146 13.0026 12.2934 12.10 
0.091 2.0 2.0 0.234 0.152 12.7573 11.3636 12.12 
0.092 2.0 2.0 0.209 0.146 13.1288 11.3636 12.12 
0.093 2.0 2.0 0.165 0.158 12.1826 13.5227 12.12 
0.094 2.0 2.0 0.177 0.152 11.9670 13.2575 12.12 
0.095 2.0 2.0 0.184 0.120 13.1288 12.5210 12.12 
0.096 2.0 2.0 0.158 0.146 13.1288 11.8620 12.13 
0.097 2.0 2.0 0.152 0.152 13.2575 13.0026 12.13 
0.098 2.0 2.0 0.158 0.158 13.0026 12.5210 12.13 
0.099 2.0 2.0 0.165 0.139 13.5227 12.7573 12.13 
0.100 2.0 2.0 0.158 0.139 13.1288 13.0026 12.13 
0.101 2.0 2.0 0.177 0.127 13.5227 13.2575 12.09 
0.102 2.0 2.0 0.146 0.082 12.1826 12.6380 12.09 
0.103 2.0 2.0 0.095 0.076 12.8788 12.6380 12.09 
0.104 2.0 2.0 0.101 0.101 13.3888 12.6380 12.09 
0.105 2.0 2.0 0.146 0.108 13.3888 13.0026 12.09 
0.106 2.0 2.0 0.177 0.101 11.5579 12.1826 12.13 
0.107 2.0 2.0 0.190 0.114 12.5210 12.7573 12.13 
0.108 2.0 2.0 0.209 0.114 13.6593 12.7573 12.13 
0.109 2.0 2.0 0.184 0.165 13.7987 13.2575 12.13 
0.110 2.0 2.0 0.171 0.158 12.1826 12.7573 12.13 
0.111 2.0 2.0 0.196 0.120 13.0026 11.9670 12.12 
0.112 2.0 2.0 0.177 0.120 13.5227 12.8788 12.12 
0.113 2.0 2.0 0.177 0.133 13.7987 13.1288 12.12 
0.114 2.0 2.0 0.177 0.139 13.3888 13.3888 12.12 
0.115 2.0 2.0 0.152 0.133 13.9409 12.5210 12.12 
0.116 2.0 2.0 0.184 0.108 13.3888 12.8788 12.12 
0.117 2.0 2.0 0.146 0.114 13.7987 13.5227 12.12 
0.118 2.0 2.0 0.101 0.101 13.1288 13.3888 12.12 
0.119 2.0 2.0 0.095 0.101 13.6593 12.6380 12.12 
0.120 2.0 2.0 0.120 0.095 13.1288 13.0026 12.12 
0.121 2.0 2.0 0.139 0.095 13.3888 12.6380 12.10 
0.122 2.0 2.0 0.158 0.101 13.0026 13.3888 12.10 
0.123 2.0 2.0 0.158 0.089 13.5227 12.5210 12.10 
0.124 2.0 2.0 0.177 0.127 12.8788 13.0026 12.10 
0.125 2.0 2.0 0.165 0.133 13.3888 13.0026 12.10 
0.126 2.0 2.0 0.196 0.127 13.5227 13.3888 12.12 
0.127 2.0 2.0 0.177 0.114 13.7987 13.5227 12.12 
0.128 2.0 2.0 0.171 0.076 13.5227 13.1288 12.12 
0.129 2.0 2.0 0.165 0.082 13.7987 12.6380 12.12 
0.130 2.0 2.0 0.158 0.089 13.9409 13.5227 12.12 
0.131 2.0 2.0 0.171 0.114 14.2344 13.3888 12.13 
0.132 2.0 2.0 0.165 0.127 13.9409 13.1288 12.13 
0.133 2.0 2.0 0.139 0.127 14.0861 13.5227 12.13 
0.134 2.0 2.0 0.095 0.120 13.1288 13.6593 12.13 
0.135 2.0 2.0 0.120 0.101 13.6593 13.2575 12.13 
0.136 2.0 2.0 0.139 0.120 13.7987 13.1288 12.13 
0.137 2.0 2.0 0.133 0.120 13.7987 13.3888 12.13 
0.138 2.0 2.0 0.133 0.133 14.2344 13.5227 12.13 
0.139 2.0 2.0 0.171 0.146 14.2344 13.3888 12.13 
0.140 2.0 2.0 0.177 0.139 14.3858 13.1288 12.13 
0.141 2.0 2.0 0.158 0.146 13.2575 12.1826 12.12 
0.142 2.0 2.0 0.158 0.146 13.9409 13.0026 12.12 
0.143 2.0 2.0 0.146 0.152 14.2344 13.9409 12.12 
0.144 2.0 2.0 0.133 0.146 14.3858 13.3888 12.12 
0.145 2.0 2.0 0.139 0.127 14.3858 12.6380 12.12 
0.146 2.0 2.0 0.133 0.133 14.5405 13.2575 12.13 
0.147 2.0 2.0 0.158 0.101 14.3858 13.2575 12.13 
0.148 2.0 2.0 0.139 0.114 14.5405 13.2575 12.13 
0.149 2.0 2.0 0.082 0.108 13.1288 13.5227 12.13 
0.150 2.0 2.0 0.082 0.095 13.9409 13.6593 12.13 
0.151 2.0 2.0 0.101 0.063 14.3858 13.0026 12.15 
0.152 2.0 2.0 0.146 0.063 14.5405 13.2575 12.15 
0.153 2.0 2.0 0.165 0.057 12.4061 13.0026 12.15 
0.154 2.0 2.0 0.190 0.082 14.6986 13.5227 12.15 
0.155 2.0 2.0 0.190 0.101 14.8601 13.2575 12.15 
0.156 2.0 2.0 0.165 0.127 13.0026 12.6380 12.13 
0.157 2.0 2.0 0.177 0.114 13.9409 13.1288 12.13 
0.158 2.0 2.0 0.165 0.146 14.0861 13.1288 12.13 
0.159 2.0 2.0 0.158 0.076 14.5405 13.3888 12.13 
0.160 2.0 2.0 0.158 0.101 14.3858 12.2934 12.13 
0.161 2.0 2.0 0.158 0.120 14.8601 13.2575 12.10 
0.162 2.0 2.0 0.171 0.101 14.5405 13.3888 12.10 
0.163 2.0 2.0 0.127 0.120 14.6986 13.6593 12.10 
0.164 2.0 2.0 0.082 0.127 13.5227 12.8788 12.10 
0.165 2.0 2.0 0.095 0.101 14.0861 13.2575 12.10 
0.166 2.0 2.0 0.082 0.127 13.9409 13.6593 12.13 
0.167 2.0 2.0 0.108 0.120 14.2344 13.7987 12.13 
0.168 2.0 2.0 0.146 0.108 13.9409 13.0026 12.13 
0.169 2.0 2.0 0.165 0.108 14.2344 13.3888 12.13 
0.170 2.0 2.0 0.171 0.101 13.5227 12.8788 12.13 
0.171 2.0 2.0 0.165 0.095 14.0861 13.3888 12.13 
0.172 2.0 2.0 0.171 0.114 14.5405 12.8788 12.13 
0.173 2.0 2.0 0.158 0.095 14.3858 13.3888 12.13 
0.174 2.0 2.0 0.139 0.127 14.6986 13.2575 12.13 
0.175 2.0 2.0 0.146 0.108 14.6986 13.6593 12.13 
0.176 2.0 2.0 0.146 0.108 15.0252 13.9409 12.12 
0.177 2.0 2.0 0.146 0.089 14.6986 13.3888 12.12 
0.178 2.0 2.0 0.139 0.101 14.8601 12.8788 12.12 
0.179 2.0 2.0 0.095 0.120 14.3858 13.3888 12.12 
0.180 2.0 2.0 0.120 0.108 14.8601 13.6593 12.12 
0.181 2.0 2.0 0.127 0.120 14.5405 13.3888 12.13 
0.182 2.0 2.0 0.139 0.101 14.8601 13.7987 12.13 
0.183 2.0 2.0 0.133 0.108 14.6986 13.9409 12.13 
0.184 2.0 2.0 0.165 0.114 15.0252 13.5227 12.13 
0.185 2.0 2.0 0.158 0.108 15.1940 13.5227 12.13 
0.186 2.0 2.0 0.120 0.133 14.5405 13.6593 12.13 
0.187 2.0 2.0 0.127 0.152 15.0252 13.7987 12.13 
0.188 2.0 2.0 0.139 0.120 15.0252 13.7987 12.13 
0.189 2.0 2.0 0.133 0.127 15.1940 13.5227 12.13 
0.190 2.0 2.0 0.114 0.146 15.0252 12.4061 12.13 
0.191 2.0 2.0 0.139 0.120 15.1940 13.2575 12.12 
0.192 2.0 2.0 0.152 0.127 15.0252 14.2344 12.12 
0.193 2.0 2.0 0.146 0.114 15.1940 13.5227 12.12 
0.194 2.0 2.0 0.108 0.133 14.3858 12.8788 12.12 
0.195 2.0 2.0 0.082 0.114 14.8601 13.3888 12.12 
0.196 2.0 2.0 0.101 0.101 14.8601 13.5227 12.10 
0.197 2.0 2.0 0.127 0.108 12.5210 13.6593 12.10 
0.198 2.0 2.0 0.133 0.127 13.6593 13.7987 12.10 
0.199 2.0 2.0 0.184 0.089 14.6986 14.0861 12.10 
0.200 2.0 2.0 0.184 0.076 14.8601 13.5227 12.10 
0.201 2.0 2.0 0.177 0.070 13.1288 13.5227 12.13 
0.202 2.0 2.0 0.171 0.057 14.0861 13.3888 12.13 
0.203 2.0 2.0 0.165 0.070 14.2344 13.6593 12.13 
0.204 2.0 2.0 0.146 0.095 14.6986 13.0026 12.13 
0.205 2.0 2.0 0.165 0.120 14.5405 13.5227 12.13 
0.206 2.0 2.0 0.146 0.127 15.0252 13.7987 12.13 
0.207 2.0 2.0 0.171 0.114 15.0252 13.5227 12.13 
0.208 2.0 2.0 0.095 0.108 14.5405 12.6380 12.13 
0.209 2.0 2.0 0.070 0.101 14.8601 13.5227 12.13 
0.210 2.0 2.0 0.076 0.114 14.5405 13.6593 12.13 
0.211 2.0 2.0 0.089 0.120 14.8601 13.6593 12.09 
0.212 2.0 2.0 0.133 0.101 14.5405 13.2575 12.09 
0.213 2.0 2.0 0.171 0.101 14.8601 13.5227 12.09 
0.214 2.0 2.0 0.165 0.133 14.3858 14.0861 12.09 
0.215 2.0 2.0 0.171 0.127 14.8601 13.2575 12.09 
0.216 2.0 2.0 0.146 0.108 14.6986 13.5227 12.15 
0.217 2.0 2.0 0.133 0.095 15.0252 13.1288 12.15 
0.218 2.0 2.0 0.139 0.095 14.8601 13.6593 12.15 
0.219 2.0 2.0 0.139 0.070 15.1940 13.2575 12.15 
0.220 2.0 2.0 0.146 0.095 15.3667 13.5227 12.15 
0.221 2.0 2.0 0.158 0.089 15.1940 13.6593 12.09 
0.222 2.0 2.0 0.146 0.114 15.3667 13.9409 12.09 
0.223 2.0 2.0 0.120 0.089 14.8601 14.0861 12.09 
0.224 2.0 2.0 0.114 0.076 15.1940 13.9409 12.09 
0.225 2.0 2.0 0.108 0.095 14.8601 13.1288 12.09 
0.226 2.0 2.0 0.139 0.101 15.1940 13.6593 12.12 
0.227 2.0 2.0 0.146 0.127 15.3667 13.7987 12.12 
0.228 2.0 2.0 0.158 0.127 15.3667 13.7987 12.12 
0.229 2.0 2.0 0.158 0.114 15.5433 14.0861 12.12 
0.230 2.0 2.0 0.133 0.114 14.8601 14.2344 12.12 
0.231 2.0 2.0 0.146 0.101 15.3667 13.9409 12.12 
0.232 2.0 2.0 0.108 0.120 15.3667 13.5227 12.12 
0.233 2.0 2.0 0.133 0.101 15.5433 13.6593 12.12 
0.234 2.0 2.0 0.139 0.108 15.3667 13.9409 12.12 
0.235 2.0 2.0 0.139 0.120 15.1940 13.7987 12.12 
0.236 2.0 2.0 0.158 0.114 15.3667 13.3888 12.13 
0.237 2.0 2.0 0.146 0.120 14.5405 12.2934 12.13 
0.238 2.0 2.0 0.120 0.127 15.0252 13.1288 12.13 
0.239 2.0 2.0 0.076 0.146 15.1940 14.0861 12.13 
0.240 2.0 2.0 0.095 0.120 15.1940 13.5227 12.13 
0.241 2.0 2.0 0.133 0.127 12.8788 12.8788 12.13 
0.242 2.0 2.0 0.127 0.108 13.9409 13.5227 12.13 
0.243 2.0 2.0 0.190 0.089 15.1940 13.6593 12.13 
0.244 2.0 2.0 0.177 0.114 15.3667 13.6593 12.13 
0.245 2.0 2.0 0.165 0.108 13.5227 13.7987 12.13 
0.246 2.0 2.0 0.158 0.114 14.6986 13.9409 12.13 
0.247 2.0 2.0 0.158 0.076 15.0252 13.7987 12.13 
0.248 2.0 2.0 0.158 0.070 14.8601 13.7987 12.13 
0.249 2.0 2.0 0.165 0.057 15.3667 13.5227 12.13 
0.250 2.0 2.0 0.139 0.101 15.0252 13.7987 12.13 
0.251 2.0 2.0 0.127 0.101 15.3667 13.1288 12.10 
0.252 2.0 2.0 0.101 0.101 14.8601 13.5227 12.10 
0.253 2.0 2.0 0.089 0.108 15.3667 13.6593 12.10 
0.254 2.0 2.0 0.095 0.108 15.0252 13.9409 12.10 
0.255 2.0 2.0 0.032 0.120 14.8601 12.8788 12.10 
0.256 2.0 2.0 0.146 0.082 15.1940 13.2575 12.13 
0.257 2.0 2.0 0.165 0.082 14.6986 13.6593 12.13 
0.258 2.0 2.0 0.158 0.101 15.1940 13.9409 12.13 
0.259 2.0 2.0 0.152 0.108 15.0252 13.3888 12.13 
0.260 2.0 2.0 0.152 0.089 15.3667 13.6593 12.13 
0.261 2.0 2.0 0.139 0.089 15.1940 14.0861 12.13 
0.262 2.0 2.0 0.146 0.095 15.3667 14.2344 12.13 
0.263 2.0 2.0 0.158 0.089 15.7241 13.5227 12.13 
0.264 2.0 2.0 0.139 0.095 15.3667 13.6593 12.13 
0.265 2.0 2.0 0.158 0.070 15.5433 13.3888 12.13 
0.266 2.0 2.0 0.101 0.082 15.0252 13.7987 12.15 
0.267 2.0 2.0 0.089 0.070 15.3667 13.1288 12.15 
0.268 2.0 2.0 0.095 0.101 15.0252 13.3888 12.15 
0.269 2.0 2.0 0.051 0.114 15.1940 13.5227 12.15 
0.270 2.0 2.0 0.127 0.114 15.1940 13.9409 12.15 
0.271 2.0 2.0 0.146 0.089 15.3667 14.0861 12.13 
0.272 2.0 2.0 0.152 0.095 15.5433 13.5227 12.13 
0.273 2.0 2.0 0.152 0.095 14.8601 13.0026 12.13 
0.274 2.0 2.0 0.146 0.108 15.3667 13.5227 12.13 
0.275 2.0 2.0 0.120 0.127 15.5433 13.6593 12.13 
0.276 2.0 2.0 0.127 0.114 15.7241 13.9409 12.09 
0.277 2.0 2.0 0.120 0.114 15.5433 14.0861 12.09 
0.278 2.0 2.0 0.120 0.120 15.3667 13.9409 12.09 
0.279 2.0 2.0 0.146 0.120 15.3667 13.7987 12.09 
0.280 2.0 2.0 0.152 0.114 14.6986 13.7987 12.09 
0.281 2.0 2.0 0.133 0.108 15.1940 14.0861 12.13 
0.282 2.0 2.0 0.076 0.133 15.3667 13.9409 12.13 
0.283 2.0 2.0 0.082 0.146 15.3667 13.5227 12.13 
0.284 2.0 2.0 0.120 0.127 13.0026 12.5210 12.13 
0.285 2.0 2.0 0.133 0.152 14.2344 13.3888 12.13 
0.286 2.0 2.0 0.190 0.114 15.5433 14.3858 12.12 
0.287 2.0 2.0 0.165 0.120 14.5405 14.0861 12.12 
0.288 2.0 2.0 0.152 0.101 15.1940 13.1288 12.12 
0.289 2.0 2.0 0.139 0.101 15.0252 13.6593 12.12 
0.290 2.0 2.0 0.146 0.114 15.3667 13.7987 12.12 
0.291 2.0 2.0 0.165 0.101 15.1940 13.7987 12.13 
0.292 2.0 2.0 0.158 0.108 15.5433 14.0861 12.13 
0.293 2.0 2.0 0.152 0.095 15.1940 14.2344 12.13 
0.294 2.0 2.0 0.120 0.063 15.5433 14.0861 12.13 
0.295 2.0 2.0 0.076 0.082 15.3667 14.0861 12.13 
0.296 2.0 2.0 0.076 0.057 15.0252 13.9409 12.13 
0.297 2.0 2.0 0.089 0.070 15.1940 14.0861 12.13 
0.298 2.0 2.0 0.127 0.089 14.8601 13.2575 12.13 
0.299 2.0 2.0 0.139 0.095 15.3667 13.5227 12.13 
0.300 2.0 2.0 0.165 0.114 14.8601 13.6593 12.13 
0.301 2.0 2.0 0.146 0.127 15.1940 13.9409 12.07 
0.302 2.0 2.0 0.146 0.120 15.1940 12.8788 12.07 
0.303 2.0 2.0 0.152 0.101 15.3667 13.3888 12.07 
0.304 2.0 2.0 0.152 0.101 15.5433 13.6593 12.07 
0.305 2.0 2.0 0.152 0.101 15.5433 14.0861 12.07 
0.306 2.0 2.0 0.158 0.095 15.7241 13.5227 12.13 
0.307 2.0 2.0 0.139 0.120 15.3667 13.6593 12.13 
0.308 2.0 2.0 0.152 0.101 15.5433 14.0861 12.13 
0.309 2.0 2.0 0.095 0.114 15.0252 14.2344 12.13 
0.310 2.0 2.0 0.076 0.114 15.5433 13.5227 12.13 
0.311 2.0 2.0 0.114 0.101 15.3667 13.6593 12.10 
0.312 2.0 2.0 0.127 0.095 15.1940 13.3888 12.10 
0.313 2.0 2.0 0.146 0.076 15.5433 13.7987 12.10 
0.314 2.0 2.0 0.184 0.070 15.5433 13.2575 12.10 
0.315 2.0 2.0 0.139 0.089 15.7241 13.5227 12.10 
0.316 2.0 2.0 0.127 0.127 15.0252 13.6593 12.15 
0.317 2.0 2.0 0.127 0.101 15.5433 14.2344 12.15 
0.318 2.0 2.0 0.114 0.038 15.7241 14.0861 12.15 
0.319 2.0 2.0 0.108 0.114 15.5433 13.2575 12.15 
0.320 2.0 2.0 0.127 0.095 15.7241 13.7987 12.15 
0.321 2.0 2.0 0.127 0.063 15.5433 13.9409 12.13 
0.322 2.0 2.0 0.158 0.101 15.7241 13.9409 12.13 
0.323 2.0 2.0 0.139 0.095 15.0252 14.2344 12.13 
0.324 2.0 2.0 0.101 0.101 15.5433 14.3858 12.13 
0.325 2.0 2.0 0.089 0.120 15.7241 14.0861 12.13 
0.326 2.0 2.0 0.114 0.127 13.2575 13.9409 12.13 
0.327 2.0 2.0 0.127 0.108 14.3858 14.0861 12.13 
0.328 2.0 2.0 0.165 0.101 15.7241 14.2344 12.13 
0.329 2.0 2.0 0.171 0.108 15.7241 14.0861 12.13 
0.330 2.0 2.0 0.171 0.120 14.8601 13.9409 12.13 
0.331 2.0 2.0 0.158 0.127 15.3667 12.4061 12.13 
0.332 2.0 2.0 0.127 0.165 15.3667 13.2575 12.13 
0.333 2.0 2.0 0.114 0.146 15.3667 14.2344 12.13 
0.334 2.0 2.0 0.127 0.139 15.7241 14.0861 12.13 
0.335 2.0 2.0 0.127 0.114 15.1940 13.0026 12.13 
0.336 2.0 2.0 0.133 0.108 15.5433 13.6593 12.09 
0.337 2.0 2.0 0.127 0.089 15.0252 13.6593 12.09 
0.338 2.0 2.0 0.089 0.108 15.3667 13.7987 12.09 
0.339 2.0 2.0 0.108 0.095 15.0252 13.9409 12.09 
0.340 2.0 2.0 0.108 0.108 15.1940 14.2344 12.09 
0.341 2.0 2.0 0.146 0.082 15.1940 13.9409 12.13 
0.342 2.0 2.0 0.152 0.089 14.8601 13.9409 12.13 
0.343 2.0 2.0 0.165 0.025 15.1940 13.7987 12.13 
0.344 2.0 2.0 0.152 0.076 15.0252 14.0861 12.13 
0.345 2.0 2.0 0.152 0.082 15.3667 13.2575 12.13 
0.346 2.0 2.0 0.152 0.089 15.1940 13.5227 12.09 
0.347 2.0 2.0 0.133 0.133 15.3667 13.7987 12.09 
0.348 2.0 2.0 0.152 0.108 15.5433 14.0861 12.09 
0.349 2.0 2.0 0.139 0.101 15.3667 13.0026 12.09 
0.350 2.0 2.0 0.171 0.089 15.5433 13.5227 12.09 
0.351 2.0 2.0 0.114 0.108 15.0252 13.9409 12.13 
0.352 2.0 2.0 0.108 0.095 15.3667 14.2344 12.13 
0.353 2.0 2.0 0.101 0.120 15.0252 13.9409 12.13 
0.354 2.0 2.0 0.127 0.089 15.3667 14.3858 12.13 
0.355 2.0 2.0 0.139 0.095 15.1940 14.5405 12.13 
0.356 2.0 2.0 0.165 0.108 15.5433 13.5227 12.12 
0.357 2.0 2.0 0.177 0.082 15.7241 13.7987 12.12 
0.358 2.0 2.0 0.165 0.076 15.0252 13.7987 12.12 
0.359 2.0 2.0 0.139 0.063 15.5433 14.0861 12.12 
0.360 2.0 2.0 0.114 0.089 15.7241 13.3888 12.12 
0.361 2.0 2.0 0.114 0.070 15.7241 13.6593 12.13 
0.362 2.0 2.0 0.108 0.114 15.5433 13.7987 12.13 
0.363 2.0 2.0 0.108 0.133 15.7241 14.2344 12.13 
0.364 2.0 2.0 0.146 0.089 15.9091 14.3858 12.13 
0.365 2.0 2.0 0.139 0.076 15.0252 14.0861 12.13 
0.366 2.0 2.0 0.108 0.082 15.5433 13.2575 12.13 
0.367 2.0 2.0 0.070 0.120 15.7241 13.7987 12.13 
0.368 2.0 2.0 0.076 0.127 15.9091 13.9409 12.13 
0.369 2.0 2.0 0.101 0.133 13.3888 13.9409 12.13 
0.370 2.0 2.0 0.139 0.108 15.7241 14.2344 12.13 
0.371 2.0 2.0 0.177 0.101 15.9091 14.3858 12.12 
0.372 2.0 2.0 0.158 0.101 14.8601 14.0861 12.12 
0.373 2.0 2.0 0.133 0.120 15.5433 13.9409 12.12 
0.374 2.0 2.0 0.139 0.114 15.3667 14.0861 12.12 
0.375 2.0 2.0 0.133 0.133 15.7241 14.2344 12.12 
0.376 2.0 2.0 0.146 0.127 15.5433 14.0861 12.12 
0.377 2.0 2.0 0.139 0.108 15.5433 13.9409 12.12 
0.378 2.0 2.0 0.120 0.127 15.9091 12.6380 12.12 
0.379 2.0 2.0 0.114 0.108 15.3667 13.5227 12.12 
0.380 2.0 2.0 0.082 0.127 15.7241 14.5405 12.12 
0.381 2.0 2.0 0.082 0.120 15.3667 13.9409 12.12 
0.382 2.0 2.0 0.089 0.114 15.7241 13.2575 12.12 
0.383 2.0 2.0 0.127 0.089 15.3667 13.7987 12.12 
0.384 2.0 2.0 0.139 0.108 15.1940 13.9409 12.12 
0.385 2.0 2.0 0.146 0.120 15.5433 14.0861 12.12 
0.386 2.0 2.0 0.139 0.108 15.3667 14.3858 12.09 
0.387 2.0 2.0 0.133 0.108 15.9091 14.0861 12.09 
0.388 2.0 2.0 0.152 0.070 15.5433 13.9409 12.09 
0.389 2.0 2.0 0.146 0.070 15.7241 13.9409 12.09 
0.390 2.0 2.0 0.139 0.082 16.0984 14.0861 12.09 
0.391 2.0 2.0 0.139 0.095 15.7241 13.2575 12.09 
0.392 2.0 2.0 0.146 0.108 15.9091 13.5227 12.09 
0.393 2.0 2.0 0.133 0.108 15.3667 13.7987 12.09 
0.394 2.0 2.0 0.089 0.114 15.7241 14.0861 12.09 
0.395 2.0 2.0 0.114 0.114 15.3667 13.0026 12.09 
0.396 2.0 2.0 0.120 0.114 15.7241 13.5227 12.12 
0.397 2.0 2.0 0.139 0.095 15.9091 13.9409 12.12 
